% brunhes.m
% Meyadnier and Valet, 1993.
% Paleointensity curve 
% MV93 is array with age (Ma) and vadm (x10^22 am)

fprintf('MV93 is age,vadm array from Meyadnier and Valet, 1993\n');
fprintf(' age is in Ma\n\n')
MV93=[
     0.01021,        8.040;
     0.01021,        7.953;
     0.01196,        7.681;
     0.01267,        7.544;
     0.01337,        8.140;
     0.01372,        8.772;
     0.01513,        9.219;
     0.01619,        9.392;
     0.01724,        8.747;
     0.01795,        7.594;
     0.01900,        7.519;
     0.02815,        6.453;
     0.02815,        7.433;
     0.02921,        7.631;
     0.02991,        8.313;
     0.03097,        9.169;
     0.03202,        6.874;
     0.03343,        7.060;
     0.03449,        7.247;
     0.03554,        7.060;
     0.03695,        6.713;
     0.03801,        6.329;
     0.03941,        5.510;
     0.04082,        4.431;
     0.04223,        3.687;
     0.04364,        3.662;
     0.04610,        4.245;
     0.04821,        5.101;
     0.04962,        5.833;
     0.05208,        6.130;
     0.05384,        6.316;
     0.05595,        6.837;
     0.05806,        7.346;
     0.06018,        7.755;
     0.06229,        7.842;
     0.06440,        7.805;
     0.06545,        7.457;
     0.06721,        7.048;
     0.06792,        7.234;
     0.06933,        8.350;
     0.07003,        8.946;
     0.07144,        7.519;
     0.07355,        5.684;
     0.07460,        4.505;
     0.07601,        3.873;
     0.07707,        3.811;
     0.07777,        4.307;
     0.07883,        5.163;
     0.08023,        5.622;
     0.08164,        5.709;
     0.08270,        6.353;
     0.08446,        5.597;
     0.08551,        5.510;
     0.08622,        5.212;
     0.08692,        4.741;
     0.08868,        4.766;
     0.09009,        4.071;
     0.09044,        3.513;
     0.09255,        3.625;
     0.09326,        3.922;
     0.09713,        4.109;
     0.09889,        4.419;
     0.10029,        4.642;
     0.10276,        4.295;
     0.10381,        4.245;
     0.10557,        4.443;
     0.10804,        4.592;
     0.10909,        4.406;
     0.11120,        4.282;
     0.11226,        4.431;
     0.11331,        5.460;
     0.11437,        4.369;
     0.11543,        4.344;
     0.11754,        4.233;
     0.11859,        3.947;
     0.12035,        3.426;
     0.12106,        3.650;
     0.12141,        3.786;
     0.12493,        3.761;
     0.12528,        3.650;
     0.12739,        3.538;
     0.12880,        4.282;
     0.13056,        4.443;
     0.13196,        5.051;
     0.13443,        4.816;
     0.13619,        5.064;
     0.13760,        5.535;
     0.13935,        5.820;
     0.14111,        5.572;
     0.14182,        5.336;
     0.14252,        4.977;
     0.14499,        4.915;
     0.14674,        4.753;
     0.14850,        4.704;
     0.15026,        4.555;
     0.15308,        4.592;
     0.15519,        4.617;
     0.15589,        4.605;
     0.15695,        4.270;
     0.15801,        3.898;
     0.16012,        3.774;
     0.16328,        3.761;
     0.16610,        3.836;
     0.16786,        4.022;
     0.16927,        4.133;
     0.17208,        4.307;
     0.17314,        4.629;
     0.17595,        5.101;
     0.17736,        4.977;
     0.17947,        4.654;
     0.18088,        4.865;
     0.18405,        4.865;
     0.18581,        3.637;
     0.18757,        4.443;
     0.18792,        4.704;
     0.18968,        4.406;
     0.19038,        3.960;
     0.19249,        3.947;
     0.19460,        3.712;
     0.19460,        3.464;
     0.19496,        3.625;
     0.19566,        3.029;
     0.19707,        2.260;
     0.19812,        2.819;
     0.19883,        3.414;
     0.20059,        3.947;
     0.20129,        4.133;
     0.20270,        3.166;
     0.20481,        2.757;
     0.20692,        2.992;
     0.20903,        3.240;
     0.21220,        3.216;
     0.21537,        3.253;
     0.21748,        3.712;
     0.21889,        4.195;
     0.22029,        4.456;
     0.22205,        5.163;
     0.22346,        6.254;
     0.22452,        6.688;
     0.22557,        6.329;
     0.22768,        6.180;
     0.23015,        5.969;
     0.23120,        5.820;
     0.23226,        4.915;
     0.23367,        4.146;
     0.23543,        3.836;
     0.23718,        3.650;
     0.23824,        3.364;
     0.23965,        3.216;
     0.24106,        3.439;
     0.24246,        4.009;
     0.24352,        4.543;
     0.24528,        5.175;
     0.24598,        6.019;
     0.24774,        6.465;
     0.24950,        6.205;
     0.25091,        5.584;
     0.25196,        4.840;
     0.25372,        4.158;
     0.25478,        3.947;
     0.25619,        4.171;
     0.25900,        4.853;
     0.26006,        4.468;
     0.26111,        3.997;
     0.26358,        3.885;
     0.26569,        3.836;
     0.26674,        4.009;
     0.26815,        4.344;
     0.26921,        4.443;
     0.27026,        4.319;
     0.27202,        4.233;
     0.27378,        4.357;
     0.27449,        4.419;
     0.27660,        4.406;
     0.27695,        4.344;
     0.27836,        3.997;
     0.27977,        3.526;
     0.28047,        3.240;
     0.28293,        2.918;
     0.28364,        2.645;
     0.28434,        2.943;
     0.28540,        3.265;
     0.28645,        3.439;
     0.28751,        3.699;
     0.28997,        3.935;
     0.29103,        4.071;
     0.29279,        4.133;
     0.29525,        4.233;
     0.29630,        4.245;
     0.29736,        4.406;
     0.29877,        4.567;
     0.30018,        4.667;
     0.30158,        5.002;
     0.30370,        5.684;
     0.30440,        5.833;
     0.30616,        5.448;
     0.30792,        5.163;
     0.30897,        4.617;
     0.31144,        3.774;
     0.31320,        3.625;
     0.31531,        3.823;
     0.31601,        3.848;
     0.31742,        3.761;
     0.31812,        3.699;
     0.31918,        3.898;
     0.32023,        4.220;
     0.32094,        4.704;
     0.32199,        4.419;
     0.32411,        4.816;
     0.32446,        4.443;
     0.32587,        4.146;
     0.32727,        3.960;
     0.32868,        4.059;
     0.32868,        4.295;
     0.32974,        4.716;
     0.32974,        4.915;
     0.33150,        4.989;
     0.33220,        5.014;
     0.33501,        5.064;
     0.33607,        5.597;
     0.33748,        6.068;
     0.33853,        6.378;
     0.34100,        6.775;
     0.34170,        6.887;
     0.34346,        6.081;
     0.34557,        5.398;
     0.34698,        5.051;
     0.34944,        5.932;
     0.35050,        7.048;
     0.35191,        7.681;
     0.35437,        7.643;
     0.35437,        7.532;
     0.35613,        7.569;
     0.35859,        7.619;
     0.36035,        7.259;
     0.36211,        6.639;
     0.36387,        6.093;
     0.36669,        5.671;
     0.36774,        5.696;
     0.36880,        6.019;
     0.37126,        6.316;
     0.37302,        6.912;
     0.37478,        7.296;
     0.37619,        7.284;
     0.37795,        7.122;
     0.37900,        6.998;
     0.37971,        6.837;
     0.37971,        6.788;
     0.38041,        6.639;
     0.38076,        6.589;
     0.38393,        6.577;
     0.38393,        6.391;
     0.38674,        5.870;
     0.38886,        5.349;
     0.39026,        5.064;
     0.39202,        4.890;
     0.39343,        4.878;
     0.39519,        4.964;
     0.39589,        5.051;
     0.39695,        4.977;
     0.39977,        4.493;
     0.40082,        3.972;
     0.40328,        3.712;
     0.40434,        3.637;
     0.40575,        3.712;
     0.40610,        3.885;
     0.40680,        4.071;
     0.40821,        4.481;
     0.41243,        4.208;
     0.41349,        4.047;
     0.41419,        2.757;
     0.41666,        3.116;
     0.41701,        3.414;
     0.41736,        3.823;
     0.41912,        4.183;
     0.41982,        4.753;
     0.42053,        5.349;
     0.42123,        5.845;
     0.42123,        6.155;
     0.42123,        6.353;
     0.42370,        6.750;
     0.42475,        7.023;
     0.42581,        6.688;
     0.42581,        7.284;
     0.42651,        8.090;
     0.42827,        8.586;
     0.42827,        9.095;
     0.42897,       10.645;
     0.42968,        9.454;
     0.43038,       10.719;
     0.43038,        9.330;
     0.43144,        9.839;
     0.43214,        9.330;
     0.43249,        7.333;
     0.43496,        7.792;
     0.43531,        6.775;
     0.43601,        6.006;
     0.43883,        5.498;
     0.43953,        6.279;
     0.44164,        7.023;
     0.44375,        7.135;
     0.44551,        6.167;
     0.44798,        4.443;
     0.44938,        3.612;
     0.45255,        3.600;
     0.45290,        3.885;
     0.45466,        4.493;
     0.45713,        5.014;
     0.45818,        5.287;
     0.46065,        5.498;
     0.46205,        5.572;
     0.46487,        5.448;
     0.46592,        4.443;
     0.46804,        3.253;
     0.46944,        2.781;
     0.47296,        3.017;
     0.47331,        3.402;
     0.47437,        3.823;
     0.47472,        4.381;
     0.47543,        4.195;
     0.47578,        3.935;
     0.47683,        3.811;
     0.47718,        4.629;
     0.47824,        5.225;
     0.48000,        4.146;
     0.48141,        4.059;
     0.48176,        3.947;
     0.48246,        3.798;
     0.48317,        3.699;
     0.48387,        3.538;
     0.48563,        3.513;
     0.48633,        3.426;
     0.48739,        3.042;
     0.48880,        2.905;
     0.49021,        2.695;
     0.49126,        2.484;
     0.49267,        2.273;
     0.49372,        2.124;
     0.49443,        1.963;
     0.49619,        2.037;
     0.49900,        2.124;
     0.50006,        2.248;
     0.50006,        2.447;
     0.50111,        2.558;
     0.50182,        2.695;
     0.50323,        2.868;
     0.50428,        3.067;
     0.50534,        3.575;
     0.50639,        4.096;
     0.50710,        4.605;
     0.50921,        4.803;
     0.50956,        4.691;
     0.51238,        4.617;
     0.51413,        3.997;
     0.51519,        3.278;
     0.51519,        2.794;
     0.51695,        2.571;
     0.51871,        2.843;
     0.52258,        1.901;
     0.52469,        2.087;
     0.52821,        2.236;
     0.53032,        2.347;
     0.53067,        2.707;
     0.53208,        3.377;
     0.53279,        4.071;
     0.53349,        4.233;
     0.53525,        3.439;
     0.53666,        3.464;
     0.53771,        3.972;
     0.53877,        4.195;
     0.54018,        3.935;
     0.54088,        3.600;
     0.54194,        3.228;
     0.54405,        3.588;
     0.54545,        3.786;
     0.54651,        4.096;
     0.54862,        3.389;
     0.54897,        2.620;
     0.55003,        2.198;
     0.55144,        1.988;
     0.55320,        1.826;
     0.55531,        1.628;
     0.55707,        1.764;
     0.55812,        2.012;
     0.55812,        3.340;
     0.56622,        3.451;
     0.56974,        3.265;
     0.57607,        3.922;
     0.58381,        3.228;
     0.59085,        3.860;
     0.59367,        3.513;
     0.59648,        2.881;
     0.60176,        2.967;
     0.60739,        4.084;
     0.60880,        2.484;
     0.60985,        4.146;
     0.61126,        4.964;
     0.61267,        4.319;
     0.61302,        5.188;
     0.61513,        5.200;
     0.61548,        4.679;
     0.61760,        4.530;
     0.61971,        4.828;
     0.62147,        4.096;
     0.62252,        5.126;
     0.62393,        6.862;
     0.62569,        7.271;
     0.62604,        6.676;
     0.62604,        7.681;
     0.62745,        7.991;
     0.62850,        8.660;
     0.62886,        9.392;
     0.63167,        9.926;
     0.63378,        9.926;
     0.63484,        9.541;
     0.63589,        9.095;
     0.63730,        8.710;
     0.63801,        7.631;
     0.63906,        7.656;
     0.63941,        9.479;
     0.64117,       10.459;
     0.64328,       10.608;
     0.64504,        8.871;
     0.64504,        9.305;
     0.64575,        8.350;
     0.64786,       10.633;
     0.64962,        9.963;
     0.65032,        9.008;
     0.65138,        8.462;
     0.65243,        8.648;
     0.65384,        9.157;
     0.65525,        9.268;
     0.65560,        9.144;
     0.65736,        8.995;
     0.65877,        5.795;
     0.65912,        8.288;
     0.66053,        4.828;
     0.66264,        8.971;
     0.66264,        7.792;
     0.66440,        6.664;
     0.66616,        5.820;
     0.66686,        5.225;
     0.66721,        5.014;
     0.67003,        5.200;
     0.67214,        4.741;
     0.67460,        4.319;
     0.67531,        4.220;
     0.67777,        4.381;
     0.67953,        4.679;
     0.68059,        4.766;
     0.68164,        4.654;
     0.68305,        4.307;
     0.68551,        4.133;
     0.68727,        4.022;
     0.68833,        3.947;
     0.69044,        3.712;
     0.69150,        3.426;
     0.69326,        3.191;
     0.69501,        3.042;
     0.69607,        2.955;
     0.69959,        3.054;
     0.70100,        3.203;
     0.70170,        3.439;
     0.70170,        3.637;
     0.70311,        4.121;
     0.70452,        4.456;
     0.70522,        4.828;
     0.70663,        5.498;
     0.70804,        6.366;
     0.70944,        7.730;
     0.71015,        8.847;
     0.71367,        9.045;
     0.71437,        9.305;
     0.71578,        8.983;
     0.71718,        8.189;
     0.71824,        7.383;
     0.71965,        8.028;
     0.72141,        8.326;
     0.72282,        8.598;
     0.72352,        7.222;
     0.72493,        6.453;
     0.72598,        6.924;
     0.72633,        6.564;
     0.72880,        7.333;
     0.72915,        6.701;
     0.73056,        8.574;
     0.73126,        9.343;
     0.73619,        7.544;
     0.73935,        8.946;
     0.74076,        9.330;
     0.74287,        9.380;
     0.74569,        9.392;
     0.74710,        9.256;
     0.74850,        9.107;
     0.75097,        9.057;
     0.75413,        9.070;
     0.75625,       10.025;
     0.75871,       10.347;
     0.75977,        9.429;
     0.76152,        8.648;
     0.76364,        8.239;
     0.76645,        7.867;
     0.76856,        7.780;
     0.77032,        7.122;
     0.77032,        6.478;
     0.77138,        5.398;
     0.77243,        4.481;
     0.77279,        4.977;
     0.77384,        4.133;
     0.77490,        2.372;
     0.77525,        0.536;
     0.77630,        1.330;
     0.77771,        1.504;
     0.77806,        2.062;
     0.77842,        1.665;
     0.77982,        2.447;
     0.78018,        2.781;
     0.78194,        2.509;
     0.78405,        2.794;
     0.78440,        2.533;
     0.78545,        0.921;
     0.78581,        1.814;
     0.78686,        0.512;
     0.78757,        0.301;
     0.78897,        0.648;
     0.79109,        1.169;
     0.79320,        1.702;
     0.79460,        1.851;
     0.79601,        1.653;
     0.79742,        1.839;
     0.79953,        2.112;
     0.80094,        2.360;
     0.80235,        2.521;
     0.80446,        2.819;
     0.80692,        3.327;
     0.80798,        3.501;
     0.80903,        3.302;
     0.80938,        2.831;
     0.81150,        2.533;
     0.81255,        2.360;
     0.81361,        2.223;
     0.81572,        2.372;
     0.81677,        2.905;
     0.81748,        3.017;
     0.81924,        2.695;
     0.82065,        2.285;
     0.82135,        1.826;
     0.82346,        1.591;
     0.82522,        2.161;
     0.82628,        2.583;
     0.82909,        2.707;
     0.83120,        2.372;
     0.83226,        2.074;
     0.83437,        2.285;
     0.83507,        2.124;
     0.83718,        1.988;
     0.83965,        2.037;
     0.84106,        2.198;
     0.84246,        2.310;
     0.84352,        2.236;
     0.84598,        2.186;
     0.84880,        2.521;
     0.85232,        3.054;
     0.85302,        3.377;
     0.85372,        3.687;
     0.85584,        4.332;
     0.85689,        4.828;
     0.85865,        4.915;
     0.86041,        4.816;
     0.86323,        4.704;
     0.86463,        4.605;
     0.86674,        4.282;
     0.86674,        3.724;
     0.86850,        3.352;
     0.87026,        3.141;
     0.87062,        2.967;
     0.87062,        2.843;
     0.87273,        2.806;
     0.87519,        2.670;
     0.87725,        3.088;
     0.87795,        3.640;
     0.87901,        4.007;
     0.87937,        4.559;
     0.88042,        4.142;
     0.88042,        3.578;
     0.88078,        3.346;
     0.88254,        3.824;
     0.88430,        3.615;
     0.88466,        3.321;
     0.88642,        3.676;
     0.88748,        4.130;
     0.88748,        4.375;
     0.88854,        4.596;
     0.88959,        4.902;
     0.89101,        5.515;
     0.89136,        6.360;
     0.89277,        7.022;
     0.89347,        6.262;
     0.89418,        6.544;
     0.89630,        7.267;
     0.89700,        6.311;
     0.89982,        5.711;
     0.90053,        5.441;
     0.90053,        6.152;
     0.90159,        6.777;
     0.90265,        6.850;
     0.90335,        5.882;
     0.90441,        6.152;
     0.90617,        7.500;
     0.90653,        7.304;
     0.90758,        6.581;
     0.90935,        6.201;
     0.91217,        6.115;
     0.91429,        5.907;
     0.91640,        5.527;
     0.91675,        5.025;
     0.91852,        4.498;
     0.92099,        4.130;
     0.92346,        4.044;
     0.92451,        4.363;
     0.92663,        3.456;
     0.92804,        2.365;
     0.92875,        2.022;
     0.93192,        1.642;
     0.93263,        1.789;
     0.93404,        2.426;
     0.93686,        1.973;
     0.93898,        2.083;
     0.94286,        1.777;
     0.94392,        2.010;
     0.94603,        2.181;
     0.94674,        2.292;
     0.94815,        2.708;
     0.94956,        3.076;
     0.95062,        2.904;
     0.95309,        2.721;
     0.95379,        3.039;
     0.95414,        3.860;
     0.95556,        4.400;
     0.95767,        3.983;
     0.95979,        3.811;
     0.96085,        4.167;
     0.96226,        4.730;
     0.96367,        5.294;
     0.96473,        5.760;
     0.96614,        5.453;
     0.96684,        4.632;
     0.96790,        3.676;
     0.96931,        3.223;
     0.97108,        3.076;
     0.97178,        2.941;
     0.97319,        3.370;
     0.97460,        3.701;
     0.97531,        4.240;
     0.97637,        4.841;
     0.97707,        5.184;
     0.97919,        4.877;
     0.98095,        3.676;
     0.98166,        2.721;
     0.98272,        2.390;
     0.98377,        1.875;
     0.98448,        0.968;
     0.98624,        0.245;
     0.98765,        0.686;
     0.98801,        0.821;
     0.98801,        1.667;
     0.98836,        1.029;
     0.98977,        2.206;
     0.99295,        1.556;
     0.99295,        1.936;
     0.99541,        2.451;
     0.99718,        2.647;
     0.99859,        2.672;
     1.00035,        2.868;
     1.00247,        2.868;
     1.00353,        2.230;
     1.00564,        1.814;
     1.00705,        2.022;
     1.00811,        2.463;
     1.01023,        2.806;
     1.01093,        2.917;
     1.01235,        2.782;
     1.01411,        2.757;
     1.01834,        2.880;
     1.02116,        2.610;
     1.02257,        2.745;
     1.02469,        3.064;
     1.02610,        3.382;
     1.02857,        3.456;
     1.02998,        3.566;
     1.03210,        3.713;
     1.03280,        3.922;
     1.03422,        4.007;
     1.03739,        3.676;
     1.03880,        3.333;
     1.04233,        3.235;
     1.04303,        2.917;
     1.04550,        2.757;
     1.04691,        3.076;
     1.04868,        3.554;
     1.05009,        3.676;
     1.05185,        3.493;
     1.05432,        3.174;
     1.05573,        3.260;
     1.05855,        3.248;
     1.05855,        3.480;
