% SINT800
% sint-800 paleointensity of geomagnetic field compilation 
% from:
% Guyodo, Y. and J-P. Valet, Global changes in intensity of 
% the Earth's magnetic field  during the past 800 kyr, 
% Nature, 399, 249-252, 1999.
%
% vadm is in Am
% age is millions of years
%

%AGE(ka), # of CORES, SINT-800, STDERR(2 SIGMA),STDERR(1 SIGMA)
% VADM 10^22 Am^2 (Calib. 0-40 ka)	STD ERR. VADM;

sint800=[
2.0000	6.0000	1.0404	0.54767	0.25277	6.7014	1.8408;
3.0000	7.0000	1.1941	0.44341	0.20323	7.8205	1.4800;
4.0000	7.0000	1.2003	0.43393	0.19889	7.8662	1.4484;
5.0000	8.0000	1.1740	0.42783	0.19609	7.6745	1.4280;
6.0000	10.000	1.2500	0.34215	0.16364	8.2279	1.1917;
7.0000	11.000	1.2453	0.32244	0.16122	8.1939	1.1741;
8.0000	11.000	1.2143	0.28408	0.14204	7.9681	1.0344;
9.0000	13.000	1.2222	0.26160	0.13080	8.0253	0.95256;
10.000	15.000	1.1642	0.23375	0.12244	7.6032	0.89167;
11.000	16.000	1.2054	0.22911	0.12001	7.9030	0.87400;
12.000	17.000	1.1674	0.18930	0.099155	7.6264	0.72211;
13.000	17.000	1.1401	0.18708	0.097992	7.4274	0.71364;
14.000	21.000	1.0946	0.18059	0.094596	7.0964	0.68891;
15.000	22.000	1.0116	0.16792	0.087960	6.4922	0.64058;
16.000	22.000	0.99785	0.19081	0.099946	6.3917	0.72787;
17.000	23.000	0.97313	0.11679	0.061174	6.2116	0.44550;
18.000	24.000	1.0067	0.13400	0.070188	6.4564	0.51115;
19.000	24.000	0.99998	0.16230	0.085012	6.4072	0.61911;
20.000	24.000	0.98559	0.16867	0.088350	6.3024	0.64341;
21.000	24.000	0.98103	0.13533	0.070887	6.2691	0.51624;
22.000	24.000	0.90499	0.12178	0.063791	5.7154	0.46457;
23.000	25.000	0.88211	0.11263	0.058995	5.5488	0.42964;
24.000	26.000	0.87779	0.088853	0.046542	5.5174	0.33895;
25.000	26.000	0.94432	0.094826	0.049671	6.0018	0.36173;
26.000	26.000	0.89750	0.079780	0.041789	5.6608	0.30434;
27.000	26.000	0.85466	0.089152	0.046699	5.3489	0.34009;
28.000	26.000	0.77965	0.10023	0.052503	4.8026	0.38236;
29.000	26.000	0.79607	0.089574	0.046920	4.9222	0.34170;
30.000	26.000	0.84232	0.11888	0.062271	5.2590	0.45349;
31.000	26.000	0.82689	0.086183	0.045143	5.1466	0.32876;
32.000	26.000	0.80352	0.089244	0.046747	4.9765	0.34044;
33.000	27.000	0.81532	0.10322	0.054068	5.0624	0.39376;
34.000	27.000	0.77623	0.11330	0.059347	4.7777	0.43220;
35.000	27.000	0.72035	0.10221	0.053536	4.3708	0.38988;
36.000	27.000	0.61312	0.088411	0.046311	3.5898	0.33726;
37.000	27.000	0.51847	0.084797	0.044418	2.9006	0.32348;
38.000	27.000	0.51863	0.078338	0.041034	2.9017	0.29883;
39.000	27.000	0.59206	0.098547	0.051620	3.4365	0.37593;
40.000	27.000	0.55734	0.072239	0.037839	3.1836	0.27557;
41.000	28.000	0.54999	0.079327	0.041552	3.1301	0.30261;
42.000	28.000	0.62108	0.079098	0.041432	3.6478	0.30173;
43.000	28.000	0.68569	0.094006	0.049241	4.1183	0.35861;
44.000	28.000	0.73418	0.092772	0.048595	4.4715	0.35390;
45.000	28.000	0.77140	0.10697	0.056032	4.7426	0.40806;
46.000	28.000	0.85307	0.10680	0.055940	5.3373	0.40739;
47.000	28.000	0.93292	0.14541	0.076170	5.9188	0.55471;
48.000	28.000	0.98524	0.15278	0.080028	6.2998	0.58282;
49.000	28.000	1.0682	0.14051	0.073600	6.9037	0.53600;
50.000	28.000	1.1168	0.11173	0.058524	7.2578	0.42621;
51.000	28.000	1.2072	0.097938	0.051301	7.9159	0.37360;
52.000	28.000	1.2177	0.10868	0.056929	7.9931	0.41459;
53.000	28.000	1.1911	0.11468	0.060069	7.7989	0.43746;
54.000	28.000	1.1996	0.10046	0.052621	7.8606	0.38322;
55.000	28.000	1.2311	0.10820	0.056679	8.0905	0.41277;
56.000	28.000	1.2406	0.16838	0.088202	8.1596	0.64234;
57.000	27.000	1.1396	0.15693	0.082201	7.4236	0.59863;
58.000	27.000	1.0910	0.15567	0.081540	7.0703	0.59382;
59.000	27.000	1.0659	0.16310	0.085432	6.8869	0.62217;
60.000	27.000	0.98172	0.12982	0.068000	6.2742	0.49522;
61.000	27.000	0.90975	0.10732	0.056214	5.7501	0.40938;
62.000	27.000	0.85844	0.092127	0.048257	5.3764	0.35144;
63.000	26.000	0.88581	0.089627	0.046947	5.5757	0.34190;
64.000	26.000	0.80588	0.14068	0.073687	4.9936	0.53663;
65.000	26.000	0.81323	0.15039	0.078778	5.0472	0.57371;
66.000	26.000	0.80780	0.15383	0.080578	5.0076	0.58682;
67.000	26.000	0.82414	0.13847	0.072534	5.1266	0.52824;
68.000	26.000	0.85216	0.11632	0.060929	5.3307	0.44372;
69.000	26.000	0.87722	0.096612	0.050606	5.5132	0.36855;
70.000	26.000	0.91475	0.078782	0.041267	5.7865	0.30053;
71.000	26.000	0.96622	0.085519	0.044796	6.1614	0.32623;
72.000	26.000	1.0011	0.11966	0.062677	6.4152	0.45645;
73.000	26.000	0.96903	0.12645	0.066234	6.1818	0.48236;
74.000	26.000	0.88084	0.10766	0.056392	5.5396	0.41068;
75.000	26.000	0.92224	0.14109	0.073902	5.8410	0.53820;
76.000	26.000	0.93662	0.12569	0.065838	5.9458	0.47947;
77.000	26.000	0.98727	0.13653	0.071514	6.3147	0.52080;
78.000	26.000	0.95583	0.13489	0.070659	6.0856	0.51458;
79.000	26.000	1.0071	0.14363	0.075235	6.4590	0.54790;
80.000	26.000	1.0130	0.13311	0.069724	6.5020	0.50778;
81.000	26.000	0.97585	0.11761	0.061607	6.2315	0.44866;
82.000	26.000	0.98698	0.10941	0.057310	6.3125	0.41736;
83.000	26.000	0.92628	0.10345	0.054188	5.8705	0.39463;
84.000	26.000	0.91204	0.092088	0.048237	5.7668	0.35129;
85.000	26.000	0.99435	0.10062	0.052704	6.3662	0.38382;
86.000	26.000	1.0638	0.15228	0.079764	6.8718	0.58089;
87.000	26.000	0.95926	0.10832	0.056737	6.1107	0.41319;
88.000	26.000	0.89446	0.10024	0.052506	5.6387	0.38238;
89.000	26.000	0.90678	0.11830	0.061967	5.7285	0.45128;
90.000	26.000	0.90267	0.11491	0.060190	5.6985	0.43834;
91.000	26.000	0.89322	0.12590	0.065949	5.6297	0.48028;
92.000	26.000	0.84413	0.10618	0.055616	5.2722	0.40503;
93.000	26.000	0.79558	0.10270	0.053793	4.9186	0.39175;
94.000	26.000	0.74065	0.10926	0.057229	4.5186	0.41678;
95.000	26.000	0.71522	0.11535	0.060420	4.3334	0.44002;
96.000	26.000	0.69683	0.11302	0.059199	4.1995	0.43112;
97.000	26.000	0.66107	0.096165	0.050372	3.9391	0.36684;
98.000	26.000	0.61379	0.093713	0.049088	3.5947	0.35749;
99.000	26.000	0.59180	0.089427	0.046843	3.4346	0.34114;
100.00	27.000	0.60824	0.078237	0.040981	3.5543	0.29845;
101.00	27.000	0.63659	0.079934	0.041870	3.7608	0.30493;
102.00	26.000	0.65774	0.083710	0.043848	3.9148	0.31933;
103.00	26.000	0.68034	0.086153	0.045128	4.0794	0.32865;
104.00	26.000	0.69589	0.11438	0.059912	4.1926	0.43632;
105.00	26.000	0.66328	0.10080	0.052799	3.9551	0.38451;
106.00	26.000	0.68937	0.10189	0.053373	4.1451	0.38870;
107.00	25.000	0.68708	0.098218	0.051448	4.1284	0.37467;
108.00	25.000	0.69157	0.094155	0.049319	4.1612	0.35917;
109.00	25.000	0.68377	0.080296	0.042060	4.1044	0.30631;
110.00	25.000	0.67871	0.070295	0.036821	4.0675	0.26816;
111.00	24.000	0.69570	0.076353	0.039994	4.1913	0.29126;
112.00	24.000	0.67322	0.086337	0.045224	4.0275	0.32935;
113.00	24.000	0.66622	0.079790	0.041795	3.9765	0.30437;
114.00	24.000	0.67603	0.091184	0.047763	4.0480	0.34784;
115.00	24.000	0.69323	0.089791	0.047033	4.1732	0.34253;
116.00	24.000	0.68525	0.076353	0.039994	4.1151	0.29126;
117.00	24.000	0.66702	0.083538	0.043758	3.9824	0.31867;
118.00	24.000	0.68591	0.081414	0.042646	4.1200	0.31057;
119.00	24.000	0.66730	0.10083	0.052816	3.9844	0.38464;
120.00	24.000	0.68750	0.096460	0.050527	4.1315	0.36797;
121.00	24.000	0.70884	0.10426	0.054611	4.2869	0.39771;
122.00	24.000	0.72190	0.11166	0.058488	4.3821	0.42594;
123.00	23.000	0.73888	0.10286	0.053877	4.5057	0.39237;
124.00	24.000	0.78373	0.10953	0.057373	4.8324	0.41782;
125.00	24.000	0.81880	0.10229	0.053581	5.0877	0.39021;
126.00	24.000	0.83808	0.10793	0.056536	5.2281	0.41173;
127.00	24.000	0.85531	0.11474	0.060103	5.3536	0.43771;
128.00	25.000	0.82382	0.086886	0.045512	5.1243	0.33144;
129.00	25.000	0.84903	0.095100	0.049814	5.3079	0.36278;
130.00	25.000	0.83993	0.098366	0.051525	5.2416	0.37524;
131.00	25.000	0.80260	0.094909	0.049714	4.9697	0.36205;
132.00	25.000	0.82596	0.088132	0.046164	5.1399	0.33620;
133.00	25.000	0.83566	0.094486	0.049493	5.2105	0.36044;
134.00	25.000	0.82817	0.088030	0.046111	5.1560	0.33581;
135.00	25.000	0.83748	0.11276	0.059066	5.2238	0.43016;
136.00	23.000	0.91982	0.11170	0.058508	5.8234	0.42609;
137.00	23.000	0.91366	0.091491	0.047924	5.7785	0.34901;
138.00	22.000	0.99331	0.091224	0.047784	6.3586	0.34799;
139.00	21.000	1.0282	0.11580	0.060659	6.6130	0.44176;
140.00	21.000	1.0123	0.10945	0.057333	6.4971	0.41753;
141.00	21.000	0.99284	0.10259	0.053736	6.3552	0.39134;
142.00	21.000	1.0319	0.11533	0.060410	6.6397	0.43994;
143.00	21.000	1.0546	0.13182	0.069050	6.8051	0.50286;
144.00	21.000	1.0468	0.14665	0.076819	6.7483	0.55944;
145.00	21.000	1.0815	0.16704	0.087499	7.0011	0.63722;
146.00	21.000	1.1474	0.20833	0.10913	7.4806	0.79473;
147.00	21.000	1.1090	0.18127	0.094952	7.2011	0.69149;
148.00	21.000	1.0404	0.16809	0.088047	6.7012	0.64121;
149.00	21.000	1.0210	0.16999	0.089041	6.5604	0.64845;
150.00	21.000	0.97934	0.17497	0.091650	6.2569	0.66745;
151.00	21.000	0.93047	0.15089	0.079038	5.9010	0.57560;
152.00	21.000	0.92907	0.15844	0.082991	5.8908	0.60439;
153.00	21.000	0.95786	0.17176	0.089971	6.1005	0.65523;
154.00	21.000	0.93162	0.18589	0.097371	5.9093	0.70911;
155.00	21.000	0.88500	0.13353	0.069946	5.5698	0.50939;
156.00	21.000	0.98258	0.16225	0.084989	6.2805	0.61894;
157.00	21.000	1.0755	0.18872	0.098851	6.9574	0.71989;
158.00	21.000	1.1182	0.19748	0.10344	7.2681	0.75332;
159.00	21.000	1.1044	0.18418	0.096478	7.1674	0.70261;
160.00	20.000	1.0032	0.15367	0.080491	6.4307	0.58619;
161.00	20.000	0.97392	0.15994	0.083777	6.2174	0.61011;
162.00	20.000	0.93169	0.14068	0.073689	5.9098	0.53665;
163.00	20.000	0.92424	0.12094	0.063348	5.8556	0.46134;
164.00	20.000	0.99866	0.11021	0.057728	6.3976	0.42041;
165.00	20.000	1.0677	0.11610	0.060813	6.9000	0.44287;
166.00	20.000	1.0792	0.11774	0.061673	6.9839	0.44914;
167.00	20.000	1.0035	0.11206	0.058697	6.4331	0.42746;
168.00	20.000	1.0317	0.11327	0.059330	6.6380	0.43208;
169.00	20.000	0.99019	0.12387	0.064885	6.3359	0.47253;
170.00	20.000	0.95592	0.11052	0.057893	6.0863	0.42161;
171.00	20.000	0.96466	0.12219	0.064006	6.1500	0.46613;
172.00	20.000	0.92113	0.12059	0.063165	5.8330	0.46001;
173.00	20.000	0.87560	0.12432	0.065122	5.5014	0.47426;
174.00	20.000	0.90121	0.13401	0.070195	5.6879	0.51121;
175.00	20.000	0.94191	0.16516	0.086514	5.9843	0.63004;
176.00	20.000	0.94859	0.18697	0.097936	6.0329	0.71323;
177.00	19.000	0.96762	0.17079	0.089462	6.1715	0.65152;
178.00	19.000	0.95610	0.16174	0.084723	6.0876	0.61700;
179.00	19.000	0.89679	0.16789	0.087944	5.6557	0.64046;
180.00	19.000	0.84143	0.16756	0.087769	5.2526	0.63918;
181.00	19.000	0.79247	0.16726	0.087613	4.8960	0.63805;
182.00	19.000	0.73048	0.15040	0.078779	4.4446	0.57372;
183.00	19.000	0.63525	0.12247	0.064150	3.7510	0.46718;
184.00	19.000	0.55664	0.097545	0.051095	3.1785	0.37211;
185.00	19.000	0.57403	0.11291	0.059144	3.3051	0.43072;
186.00	19.000	0.53825	0.13947	0.073054	3.0446	0.53202;
187.00	19.000	0.48687	0.13086	0.068546	2.6704	0.49919;
188.00	19.000	0.46385	0.13644	0.071471	2.5028	0.52050;
189.00	18.000	0.48667	0.14274	0.074768	2.6689	0.54451;
190.00	17.000	0.48338	0.17819	0.093340	2.6450	0.67976;
191.00	17.000	0.44110	0.14111	0.073913	2.3371	0.53828;
192.00	17.000	0.46081	0.12026	0.062995	2.4806	0.45877;
193.00	17.000	0.57215	0.12629	0.066153	3.2915	0.48176;
194.00	17.000	0.63162	0.12684	0.066441	3.7246	0.48387;
195.00	16.000	0.71127	0.12275	0.064299	4.3046	0.46826;
196.00	16.000	0.75070	0.13560	0.071028	4.5918	0.51726;
197.00	16.000	0.78135	0.13512	0.070775	4.8150	0.51543;
198.00	16.000	0.80709	0.13507	0.070749	5.0024	0.51524;
199.00	15.000	0.79156	0.12429	0.065105	4.8893	0.47414;
200.00	15.000	0.83453	0.15552	0.081460	5.2023	0.59324;
201.00	15.000	0.89676	0.18378	0.096264	5.6555	0.70105;
202.00	15.000	0.93816	0.20367	0.10669	5.9570	0.77695;
203.00	15.000	0.94618	0.23305	0.12207	6.0154	0.88901;
204.00	15.000	0.90315	0.15795	0.082735	5.7020	0.60253;
205.00	15.000	0.93999	0.16502	0.086437	5.9703	0.62949;
206.00	15.000	0.93415	0.16119	0.084434	5.9278	0.61490;
207.00	15.000	0.90337	0.18516	0.096986	5.7036	0.70631;
208.00	15.000	0.94435	0.19584	0.10258	6.0021	0.74708;
209.00	15.000	0.95268	0.20788	0.10889	6.0627	0.79298;
210.00	15.000	0.94280	0.22143	0.11599	5.9908	0.84467;
211.00	15.000	0.91047	0.19222	0.10068	5.7553	0.73324;
212.00	15.000	0.86123	0.18800	0.098476	5.3967	0.71716;
213.00	15.000	0.83917	0.17886	0.093686	5.2360	0.68228;
214.00	15.000	0.87823	0.16655	0.087241	5.5206	0.63534;
215.00	15.000	0.85603	0.16866	0.088346	5.3589	0.64338;
216.00	15.000	0.83940	0.17547	0.091910	5.2378	0.66935;
217.00	15.000	0.86418	0.18285	0.095777	5.4182	0.69751;
218.00	14.000	0.88774	0.20225	0.10113	5.5898	0.73646;
219.00	14.000	0.84822	0.18475	0.092376	5.3020	0.67274;
220.00	14.000	0.90284	0.18960	0.094801	5.6998	0.69040;
221.00	14.000	0.89169	0.18628	0.093140	5.6186	0.67830;
222.00	14.000	0.98040	0.21298	0.10649	6.2646	0.77552;
223.00	14.000	0.94746	0.16248	0.081242	6.0247	0.59165;
224.00	14.000	0.94657	0.20012	0.10006	6.0182	0.72869;
225.00	14.000	0.99362	0.21163	0.10582	6.3609	0.77062;
226.00	14.000	0.99169	0.20261	0.10130	6.3468	0.73776;
227.00	14.000	0.93359	0.19488	0.097441	5.9237	0.70963;
228.00	14.000	1.0191	0.22230	0.11115	6.5461	0.80948;
229.00	14.000	1.1576	0.29118	0.14559	7.5549	1.0603;
230.00	14.000	1.1758	0.30997	0.15499	7.6879	1.1287;
231.00	14.000	1.2035	0.33057	0.16529	7.8895	1.2037;
232.00	14.000	1.2045	0.34839	0.17419	7.8967	1.2686;
233.00	14.000	1.1216	0.27461	0.13731	7.2926	0.99994;
234.00	14.000	1.0747	0.23126	0.11563	6.9515	0.84209;
235.00	14.000	1.0312	0.20723	0.10362	6.6343	0.75459;
236.00	14.000	0.98247	0.24092	0.12046	6.2797	0.87725;
237.00	14.000	1.0285	0.17287	0.086435	6.6147	0.62947;
238.00	14.000	1.0327	0.22601	0.11300	6.6456	0.82296;
239.00	14.000	1.0270	0.24824	0.12412	6.6037	0.90391;
240.00	14.000	1.0090	0.20698	0.10349	6.4726	0.75366;
241.00	14.000	0.96000	0.19745	0.098726	6.1161	0.71898;
242.00	14.000	0.92583	0.19771	0.098854	5.8672	0.71991;
243.00	14.000	0.95297	0.15257	0.076286	6.0648	0.55556;
244.00	14.000	0.94083	0.18268	0.091338	5.9764	0.66518;
245.00	14.000	0.85781	0.14965	0.074827	5.3718	0.54493;
246.00	14.000	0.87030	0.17000	0.084998	5.4628	0.61900;
247.00	14.000	0.89738	0.22810	0.11405	5.6600	0.83057;
248.00	14.000	0.92622	0.21846	0.10923	5.8700	0.79549;
249.00	14.000	1.0062	0.24010	0.12005	6.4526	0.87426;
250.00	14.000	1.0742	0.23497	0.11749	6.9480	0.85560;
251.00	14.000	1.1012	0.22237	0.11119	7.1447	0.80972;
252.00	14.000	1.1147	0.20460	0.10230	7.2426	0.74500;
253.00	14.000	1.0721	0.18820	0.094102	6.9327	0.68531;
254.00	14.000	1.0535	0.22426	0.11213	6.7969	0.81659;
255.00	14.000	1.0076	0.19195	0.095976	6.4626	0.69895;
256.00	14.000	0.97508	0.18652	0.093258	6.2258	0.67916;
257.00	14.000	0.95718	0.21597	0.10799	6.0955	0.78642;
258.00	14.000	0.99160	0.24339	0.12169	6.3462	0.88625;
259.00	14.000	0.95936	0.24256	0.12128	6.1114	0.88324;
260.00	14.000	0.85437	0.19514	0.097572	5.3468	0.71058;
261.00	14.000	0.82047	0.15546	0.077731	5.0999	0.56608;
262.00	14.000	0.81579	0.14500	0.072502	5.0658	0.52801;
263.00	14.000	0.79341	0.14129	0.070647	4.9028	0.51449;
264.00	14.000	0.73979	0.16101	0.080504	4.5123	0.58628;
265.00	14.000	0.72633	0.14237	0.071185	4.4143	0.51841;
266.00	14.000	0.70436	0.13735	0.068677	4.2543	0.50015;
267.00	14.000	0.70873	0.14384	0.071920	4.2861	0.52377;
268.00	14.000	0.74485	0.11936	0.059679	4.5492	0.43462;
269.00	14.000	0.81130	0.16483	0.082417	5.0331	0.60021;
270.00	14.000	0.77320	0.14145	0.070725	4.7557	0.51506;
271.00	14.000	0.76338	0.13818	0.069089	4.6841	0.50315;
272.00	14.000	0.81176	0.16293	0.081464	5.0365	0.59327;
273.00	14.000	0.81020	0.15641	0.078204	5.0251	0.56953;
274.00	14.000	0.80410	0.14115	0.070576	4.9806	0.51398;
275.00	14.000	0.78042	0.11932	0.059660	4.8082	0.43448;
276.00	14.000	0.82821	0.13220	0.066102	5.1562	0.48139;
277.00	14.000	0.78114	0.10589	0.052947	4.8134	0.38559;
278.00	13.000	0.78715	0.12227	0.061133	4.8572	0.44521;
279.00	12.000	0.82209	0.17656	0.088279	5.1117	0.64290;
280.00	12.000	0.85873	0.18739	0.093696	5.3785	0.68235;
281.00	12.000	0.89986	0.18372	0.091859	5.6781	0.66897;
282.00	12.000	0.88122	0.18780	0.093900	5.5423	0.68383;
283.00	12.000	0.85114	0.15123	0.075617	5.3232	0.55069;
284.00	12.000	0.85205	0.19593	0.097963	5.3299	0.71343;
285.00	12.000	0.79955	0.13462	0.067310	4.9475	0.49019;
286.00	12.000	0.80423	0.15728	0.078641	4.9816	0.57271;
287.00	12.000	0.80160	0.15589	0.077946	4.9624	0.56765;
288.00	12.000	0.77871	0.15252	0.076261	4.7957	0.55538;
289.00	12.000	0.74520	0.15639	0.078193	4.5517	0.56945;
290.00	12.000	0.74867	0.14146	0.070732	4.5770	0.51511;
291.00	12.000	0.75977	0.13654	0.068268	4.6578	0.49717;
292.00	12.000	0.77227	0.12509	0.062545	4.7488	0.45549;
293.00	12.000	0.78550	0.13403	0.067014	4.8452	0.48803;
294.00	12.000	0.80479	0.11775	0.058877	4.9857	0.42877;
295.00	12.000	0.85352	0.13538	0.067692	5.3406	0.49298;
296.00	12.000	0.93629	0.15538	0.077688	5.9433	0.56577;
297.00	12.000	0.93501	0.20020	0.10010	5.9341	0.72898;
298.00	12.000	0.93981	0.20093	0.10046	5.9690	0.73164;
299.00	12.000	0.99089	0.22265	0.11133	6.3410	0.81075;
300.00	12.000	1.0566	0.27466	0.13733	6.8196	1.0001;
301.00	12.000	1.0971	0.29499	0.14749	7.1144	1.0741;
302.00	12.000	0.99371	0.16515	0.082575	6.3616	0.60136;
303.00	12.000	0.95088	0.14247	0.071237	6.0496	0.51879;
304.00	12.000	0.95389	0.21181	0.10590	6.0715	0.77125;
305.00	12.000	0.93408	0.17555	0.087773	5.9273	0.63922;
306.00	12.000	0.87617	0.10341	0.051704	5.5055	0.37654;
307.00	12.000	0.90864	0.10250	0.051248	5.7420	0.37322;
308.00	12.000	0.84999	0.10875	0.054374	5.3149	0.39598;
309.00	12.000	0.86538	0.11779	0.058894	5.4270	0.42890;
310.00	12.000	0.86808	0.12510	0.062549	5.4466	0.45552;
311.00	12.000	0.92040	0.15604	0.078020	5.8276	0.56818;
312.00	13.000	0.86495	0.098071	0.049035	5.4238	0.35710;
313.00	13.000	0.89081	0.13116	0.065579	5.6122	0.47759;
314.00	13.000	0.85342	0.13125	0.065625	5.3399	0.47792;
315.00	13.000	0.82770	0.12794	0.063971	5.1525	0.46588;
316.00	13.000	0.83857	0.12941	0.064703	5.2317	0.47120;
317.00	13.000	0.81747	0.11325	0.056626	5.0780	0.41238;
318.00	13.000	0.80893	0.097904	0.048952	5.0158	0.35650;
319.00	13.000	0.83385	0.10362	0.051809	5.1973	0.37730;
320.00	13.000	0.87849	0.10738	0.053691	5.5224	0.39101;
321.00	13.000	0.86093	0.10461	0.052306	5.3946	0.38092;
322.00	13.000	0.87909	0.12005	0.060023	5.5268	0.43712;
323.00	13.000	0.86442	0.12968	0.064841	5.4200	0.47221;
324.00	13.000	0.91889	0.17282	0.086412	5.8166	0.62930;
325.00	13.000	0.85429	0.11338	0.056692	5.3462	0.41286;
326.00	13.000	0.86651	0.13401	0.067004	5.4352	0.48796;
327.00	13.000	0.86243	0.13444	0.067222	5.4055	0.48955;
328.00	13.000	0.89063	0.14508	0.072538	5.6108	0.52826;
329.00	13.000	0.87850	0.13960	0.069799	5.5225	0.50832;
330.00	13.000	0.96030	0.14184	0.070919	6.1182	0.51647;
331.00	13.000	1.0221	0.10021	0.050106	6.5685	0.36490;
332.00	13.000	0.96156	0.12741	0.063704	6.1274	0.46393;
333.00	13.000	1.0146	0.12845	0.064223	6.5135	0.46771;
334.00	13.000	1.0059	0.14015	0.070073	6.4501	0.51031;
335.00	13.000	0.95006	0.14495	0.072477	6.0436	0.52782;
336.00	13.000	0.96496	0.11597	0.057983	6.1522	0.42227;
337.00	13.000	0.97595	0.099112	0.049556	6.2322	0.36090;
338.00	13.000	1.0502	0.12881	0.064406	6.7731	0.46905;
339.00	13.000	1.0208	0.12448	0.062242	6.5592	0.45328;
340.00	13.000	0.93191	0.18895	0.094474	5.9115	0.68802;
341.00	13.000	0.94331	0.16091	0.080456	5.9945	0.58593;
342.00	13.000	0.96289	0.17257	0.086284	6.1370	0.62838;
343.00	13.000	1.0132	0.21681	0.10840	6.5037	0.78946;
344.00	13.000	1.0185	0.23520	0.11760	6.5422	0.85642;
345.00	13.000	0.99866	0.21286	0.10643	6.3975	0.77509;
346.00	13.000	0.95281	0.18688	0.093441	6.0637	0.68049;
347.00	13.000	1.0045	0.19729	0.098647	6.4399	0.71841;
348.00	13.000	1.0359	0.19828	0.099141	6.6689	0.72201;
349.00	13.000	1.0966	0.21738	0.10869	7.1107	0.79155;
350.00	13.000	1.0872	0.19884	0.099422	7.0425	0.72405;
351.00	13.000	1.1788	0.24096	0.12048	7.7096	0.87741;
352.00	13.000	1.1428	0.18844	0.094220	7.4470	0.68616;
353.00	13.000	1.2033	0.17959	0.089795	7.8876	0.65394;
354.00	13.000	1.2693	0.14288	0.071438	8.3682	0.52025;
355.00	13.000	1.2996	0.12327	0.061633	8.5894	0.44885;
356.00	13.000	1.2197	0.087811	0.043905	8.0071	0.31975;
357.00	13.000	1.2254	0.13934	0.069671	8.0487	0.50738;
358.00	13.000	1.2491	0.14502	0.072512	8.2213	0.52808;
359.00	13.000	1.2766	0.13555	0.067777	8.4214	0.49359;
